Data from FLMS031491_11-01-17-484.txt Node
Date: Wed Feb 15 11:01:17 EST 2023
User: Wilson Lab
Spectrometer: FLMS03149
Trigger mode: 0
Integration Time (sec): 2.000000E-1
Scans to average: 1
Electric dark correction enabled: true
Nonlinearity correction enabled: false
Boxcar width: 0
XAxis mode: Wavelengths
Number of Pixels in Spectrum: 2048
>>>>>Begin Spectral Data<<<<<
338.754	-131.22
339.138	-131.22
339.521	-131.22
339.905	-222.5
340.288	-145.26
340.671	-68.02
341.055	-121.85
341.438	-91.43
341.821	-105.47
342.204	-107.81
342.587	-42.28
342.97	-35.25
343.353	-30.57
343.736	-93.77
344.119	102.84
344.502	102.84
344.885	91.13
345.268	98.16
345.65	63.05
346.033	109.86
346.416	128.58
346.798	130.92
347.181	187.1
347.563	182.42
347.946	191.78
348.328	243.27
348.71	226.89
349.093	222.2
349.475	252.63
349.857	276.04
350.239	348.59
350.621	231.57
351.003	313.49
351.385	240.93
351.767	261.99
352.149	278.38
352.531	224.55
352.913	313.49
353.295	238.59
353.676	269.02
354.058	294.76
354.44	264.33
354.821	243.27
355.203	379.02
355.584	360.3
355.966	280.72
356.347	325.19
356.729	264.33
357.11	257.31
357.491	215.18
357.873	273.7
358.254	266.67
358.635	269.02
359.016	210.5
359.397	301.78
359.778	297.1
360.159	285.4
360.54	280.72
360.921	257.31
361.301	222.2
361.682	243.27
362.063	238.59
362.444	254.97
362.824	247.95
363.205	276.04
363.585	151.99
363.966	238.59
364.346	273.7
364.727	261.99
365.107	294.76
365.487	306.46
365.867	294.76
366.248	301.78
366.628	339.23
367.008	294.76
367.388	350.93
367.768	247.95
368.148	264.33
368.528	226.89
368.908	271.36
369.288	271.36
369.667	271.36
370.047	217.52
370.427	180.07
370.806	306.46
371.186	325.19
371.566	198.8
371.945	198.8
372.325	236.25
372.704	266.67
373.083	243.27
373.463	245.61
373.842	231.57
374.221	297.1
374.6	247.95
374.979	315.83
375.358	245.61
375.737	247.95
376.116	257.31
376.495	285.4
376.874	247.95
377.253	250.29
377.632	280.72
378.011	308.8
378.389	299.44
378.768	364.98
379.147	285.4
379.525	325.19
379.904	283.06
380.282	278.38
380.661	259.65
381.039	238.59
381.417	318.17
381.796	254.97
382.174	224.55
382.552	257.31
382.93	238.59
383.308	311.14
383.686	250.29
384.064	236.25
384.442	233.91
384.82	322.85
385.198	254.97
385.576	355.62
385.954	269.02
386.331	203.48
386.709	313.49
387.087	245.61
387.464	287.74
387.842	266.67
388.219	233.91
388.597	215.18
388.974	376.68
389.351	332.21
389.729	294.76
390.106	278.38
390.483	222.2
390.86	278.38
391.237	229.23
391.614	252.63
391.991	252.63
392.368	276.04
392.745	318.17
393.122	261.99
393.499	273.7
393.876	264.33
394.253	224.55
394.629	306.46
395.006	278.38
395.382	231.57
395.759	292.42
396.135	245.61
396.512	299.44
396.888	173.05
397.265	285.4
397.641	297.1
398.017	212.84
398.393	278.38
398.77	271.36
399.146	252.63
399.522	336.89
399.898	247.95
400.274	210.5
400.65	348.59
401.026	367.32
401.401	236.25
401.777	322.85
402.153	336.89
402.529	283.06
402.904	250.29
403.28	250.29
403.655	350.93
404.031	231.57
404.406	269.02
404.782	294.76
405.157	304.12
405.532	276.04
405.908	304.12
406.283	271.36
406.658	261.99
407.033	341.57
407.408	369.66
407.783	322.85
408.158	287.74
408.533	259.65
408.908	280.72
409.283	266.67
409.658	294.76
410.033	313.49
410.407	318.17
410.782	273.7
411.157	308.8
411.531	304.12
411.906	276.04
412.28	283.06
412.654	217.52
413.029	273.7
413.403	299.44
413.777	299.44
414.152	273.7
414.526	306.46
414.9	240.93
415.274	311.14
415.648	306.46
416.022	297.1
416.396	290.08
416.77	299.44
417.144	353.27
417.518	290.08
417.891	290.08
418.265	287.74
418.639	278.38
419.012	304.12
419.386	353.27
419.759	297.1
420.133	350.93
420.506	299.44
420.88	276.04
421.253	379.02
421.626	280.72
421.999	336.89
422.373	264.33
422.746	285.4
423.119	257.31
423.492	273.7
423.865	292.42
424.238	283.06
424.611	318.17
424.984	304.12
425.356	264.33
425.729	292.42
426.102	311.14
426.474	264.33
426.847	294.76
427.22	278.38
427.592	348.59
427.965	254.97
428.337	217.52
428.709	304.12
429.082	318.17
429.454	226.89
429.826	301.78
430.198	278.38
430.571	285.4
430.943	325.19
431.315	325.19
431.687	273.7
432.059	294.76
432.431	360.3
432.802	215.18
433.174	285.4
433.546	292.42
433.918	346.25
434.289	304.12
434.661	367.32
435.032	350.93
435.404	334.55
435.775	283.06
436.147	266.67
436.518	325.19
436.89	313.49
437.261	336.89
437.632	254.97
438.003	266.67
438.374	304.12
438.745	304.12
439.116	287.74
439.487	301.78
439.858	257.31
440.229	280.72
440.6	318.17
440.971	308.8
441.342	329.87
441.712	276.04
442.083	264.33
442.454	301.78
442.824	245.61
443.195	222.2
443.565	318.17
443.936	329.87
444.306	367.32
444.676	236.25
445.047	294.76
445.417	372
445.787	250.29
446.157	264.33
446.527	287.74
446.897	416.47
447.267	327.53
447.637	266.67
448.007	283.06
448.377	322.85
448.747	280.72
449.116	306.46
449.486	308.8
449.856	306.46
450.225	374.34
450.595	320.51
450.964	257.31
451.334	315.83
451.703	261.99
452.073	301.78
452.442	287.74
452.811	318.17
453.18	285.4
453.55	372
453.919	306.46
454.288	332.21
454.657	292.42
455.026	327.53
455.395	355.62
455.764	252.63
456.132	247.95
456.501	240.93
456.87	250.29
457.239	269.02
457.607	315.83
457.976	313.49
458.344	257.31
458.713	243.27
459.081	280.72
459.45	266.67
459.818	261.99
460.186	294.76
460.555	311.14
460.923	264.33
461.291	285.4
461.659	339.23
462.027	276.04
462.395	292.42
462.763	306.46
463.131	285.4
463.499	269.02
463.867	252.63
464.235	259.65
464.602	276.04
464.97	322.85
465.338	280.72
465.705	348.59
466.073	261.99
466.44	290.08
466.808	360.3
467.175	287.74
467.542	292.42
467.91	329.87
468.277	297.1
468.644	313.49
469.011	280.72
469.378	301.78
469.745	357.96
470.112	379.02
470.479	304.12
470.846	287.74
471.213	283.06
471.58	287.74
471.947	276.04
472.313	299.44
472.68	336.89
473.047	297.1
473.413	313.49
473.78	350.93
474.146	278.38
474.513	657.54
474.879	322.85
475.245	332.21
475.612	393.06
475.978	369.66
476.344	357.96
476.71	304.12
477.076	336.89
477.442	381.36
477.808	294.76
478.174	306.46
478.54	313.49
478.906	306.46
479.272	322.85
479.638	374.34
480.003	318.17
480.369	327.53
480.734	313.49
481.1	280.72
481.466	269.02
481.831	269.02
482.196	292.42
482.562	332.21
482.927	311.14
483.292	308.8
483.658	280.72
484.023	320.51
484.388	257.31
484.753	334.55
485.118	306.46
485.483	306.46
485.848	301.78
486.213	322.85
486.578	261.99
486.942	271.36
487.307	299.44
487.672	362.64
488.036	313.49
488.401	269.02
488.765	287.74
489.13	273.7
489.494	285.4
489.859	327.53
490.223	318.17
490.587	280.72
490.952	269.02
491.316	290.08
491.68	240.93
492.044	301.78
492.408	372
492.772	313.49
493.136	325.19
493.5	261.99
493.864	315.83
494.228	299.44
494.591	247.95
494.955	355.62
495.319	315.83
495.682	266.67
496.046	297.1
496.409	304.12
496.773	292.42
497.136	322.85
497.5	299.44
497.863	332.21
498.226	336.89
498.589	259.65
498.953	313.49
499.316	301.78
499.679	350.93
500.042	278.38
500.405	341.57
500.768	290.08
501.131	306.46
501.494	322.85
501.856	336.89
502.219	285.4
502.582	400.09
502.944	294.76
503.307	266.67
503.669	283.06
504.032	285.4
504.394	252.63
504.757	285.4
505.119	308.8
505.481	306.46
505.844	266.67
506.206	325.19
506.568	294.76
506.93	423.49
507.292	290.08
507.654	364.98
508.016	336.89
508.378	294.76
508.74	343.91
509.102	283.06
509.463	329.87
509.825	245.61
510.187	346.25
510.548	336.89
510.91	343.91
511.272	301.78
511.633	278.38
511.994	329.87
512.356	297.1
512.717	257.31
513.078	315.83
513.44	304.12
513.801	292.42
514.162	341.57
514.523	280.72
514.884	350.93
515.245	313.49
515.606	231.57
515.967	290.08
516.328	306.46
516.688	332.21
517.049	346.25
517.41	322.85
517.77	297.1
518.131	252.63
518.491	318.17
518.852	297.1
519.212	290.08
519.573	313.49
519.933	353.27
520.293	353.27
520.654	261.99
521.014	372
521.374	355.62
521.734	332.21
522.094	346.25
522.454	315.83
522.814	360.3
523.174	376.68
523.534	322.85
523.894	372
524.253	318.17
524.613	327.53
524.973	320.51
525.332	327.53
525.692	327.53
526.051	311.14
526.411	334.55
526.77	329.87
527.13	245.61
527.489	343.91
527.848	292.42
528.207	276.04
528.567	428.17
528.926	283.06
529.285	313.49
529.644	343.91
530.003	369.66
530.362	304.12
530.72	339.23
531.079	393.06
531.438	327.53
531.797	318.17
532.155	364.98
532.514	306.46
532.873	334.55
533.231	292.42
533.59	357.96
533.948	610.73
534.306	2129.74
534.665	2864.67
535.023	3597.26
535.381	3063.61
535.739	1958.88
536.097	1539.93
536.456	1209.91
536.814	1003.94
537.172	872.87
537.529	479.66
537.887	350.93
538.245	320.51
538.603	297.1
538.961	315.83
539.318	428.17
539.676	599.03
540.034	657.54
540.391	491.37
540.749	482
541.106	524.13
541.463	428.17
541.821	428.17
542.178	350.93
542.535	261.99
542.892	339.23
543.25	322.85
543.607	346.25
543.964	304.12
544.321	348.59
544.678	311.14
545.035	407.11
545.391	357.96
545.748	266.67
546.105	414.13
546.462	297.1
546.818	364.98
547.175	390.72
547.531	332.21
547.888	334.55
548.244	290.08
548.601	315.83
548.957	364.98
549.313	327.53
549.67	336.89
550.026	353.27
550.382	435.19
550.738	306.46
551.094	320.51
551.45	376.68
551.806	379.02
552.162	332.21
552.518	355.62
552.874	367.32
553.229	395.4
553.585	304.12
553.941	350.93
554.296	362.64
554.652	409.45
555.007	400.09
555.363	402.43
555.718	341.57
556.074	313.49
556.429	467.96
556.784	350.93
557.139	395.4
557.495	397.74
557.85	435.19
558.205	456.26
558.56	500.73
558.915	484.34
559.27	510.09
559.624	439.87
559.979	538.18
560.334	570.94
560.689	472.64
561.043	528.81
561.398	568.6
561.753	575.63
562.107	474.98
562.462	552.22
562.816	514.77
563.17	613.07
563.525	599.03
563.879	580.31
564.233	685.63
564.587	657.54
564.941	706.7
565.295	765.21
565.649	751.17
566.003	830.74
566.357	685.63
566.711	786.27
567.065	823.72
567.419	905.64
567.773	823.72
568.126	858.83
568.48	840.11
568.833	966.49
569.187	1081.18
569.54	994.58
569.894	1067.14
570.247	1174.8
570.6	1186.51
570.954	1291.83
571.307	1172.46
571.66	1275.45
572.013	1240.34
572.366	1338.64
572.719	1345.66
573.072	1392.47
573.425	1462.69
573.778	1572.69
574.131	1598.44
574.484	1685.04
574.836	1727.17
575.189	1813.77
575.542	1865.26
575.894	1867.6
576.247	2071.23
576.599	2022.08
576.952	2087.61
577.304	2272.51
577.656	2246.77
578.009	2436.35
578.361	2469.12
578.713	2473.8
579.065	2710.19
579.417	2740.62
579.769	2993.4
580.121	3061.27
580.473	3143.19
580.825	3192.34
581.177	3248.52
581.528	3393.63
581.88	3344.48
582.232	3482.57
582.584	3508.32
582.935	3709.6
583.287	3819.61
583.638	3953.02
583.989	3985.79
584.341	4109.83
584.692	4210.48
585.043	4332.19
585.395	4439.85
585.746	4503.04
586.097	4533.47
586.448	4718.37
586.799	4844.76
587.15	5029.66
587.501	5006.26
587.852	4978.17
588.203	5376.06
588.553	5369.04
588.904	5469.69
589.255	5766.93
589.605	5748.21
589.956	5731.83
590.306	6010.35
590.657	5881.62
591.007	6012.69
591.358	6167.17
591.708	6120.35
592.058	6218.66
592.408	6373.13
592.759	6583.78
593.109	6581.44
593.459	6483.14
593.809	6663.36
594.159	6731.23
594.509	6906.77
594.859	6630.59
595.208	6717.19
595.558	6824.86
595.908	6883.37
596.258	6927.84
596.607	7215.73
596.957	6881.03
597.306	7065.93
597.656	6995.71
598.005	7042.53
598.354	7002.74
598.704	7070.61
599.053	7072.95
599.402	6981.67
599.751	6939.54
600.1	7070.61
600.45	7094.02
600.799	7012.1
601.148	6815.49
601.496	6785.07
601.845	6864.64
602.194	6815.49
602.543	6897.41
602.892	6747.62
603.24	6698.47
603.589	6771.02
603.937	6691.45
604.286	6642.29
604.634	6646.98
604.983	6623.57
605.331	6476.12
605.679	6553.35
606.028	6380.15
606.376	6546.33
606.724	6408.24
607.072	6192.91
607.42	6228.02
607.768	5977.58
608.116	6125.04
608.464	6047.8
608.812	6132.06
609.16	5862.9
609.507	5869.92
609.855	5928.43
610.203	5844.17
610.55	5830.13
610.898	5605.44
611.245	5465
611.593	5638.2
611.94	5685.01
612.288	5326.91
612.635	5326.91
612.982	5308.19
613.329	5188.82
613.676	5170.1
614.024	5184.14
614.371	5043.71
614.718	4945.41
615.064	4879.87
615.411	4767.52
615.758	4657.52
616.105	4577.94
616.452	4790.93
616.798	4496.02
617.145	4467.94
617.492	4456.23
617.838	4580.28
618.185	4395.38
618.531	4332.19
618.877	4257.29
619.224	4210.48
619.57	4238.56
619.916	4180.05
620.263	4006.85
620.609	4081.75
620.955	3866.42
621.301	3800.88
621.647	3833.65
621.993	3751.73
622.339	3700.24
622.684	3592.58
623.03	3564.49
623.376	3412.35
623.722	3566.83
624.067	3386.61
624.413	3374.91
624.758	3314.05
625.104	3290.65
625.449	3288.31
625.795	3187.66
626.14	3206.39
626.485	3077.66
626.83	3173.62
627.175	3110.43
627.521	2986.38
627.866	2972.33
628.211	2934.89
628.556	2909.14
628.901	2810.84
629.245	2824.88
629.59	2738.28
629.935	2724.24
630.28	2677.43
630.624	2558.06
630.969	2682.11
631.314	2532.31
631.658	2586.15
632.002	2567.42
632.347	2501.89
632.691	2452.74
633.036	2466.78
633.38	2394.22
633.724	2333.37
634.068	2338.05
634.412	2328.69
634.756	2242.09
635.1	2185.91
635.444	2253.79
635.788	2223.36
636.132	2167.19
636.476	2139.1
636.82	2171.87
637.163	2078.25
637.507	2181.23
637.85	2054.84
638.194	2064.21
638.537	2038.46
638.881	2094.63
639.224	2089.95
639.568	2008.03
639.911	1998.67
640.254	1891.01
640.597	1905.05
640.94	1860.58
641.284	1806.75
641.627	1825.47
641.97	1883.98
642.312	1923.77
642.655	1909.73
642.998	1827.81
643.341	1874.62
643.684	1883.98
644.026	1853.56
644.369	1748.23
644.712	1804.41
645.054	1776.32
645.396	1701.42
645.739	1785.68
646.081	1717.81
646.424	1713.13
646.766	1708.44
647.108	1591.42
647.45	1685.04
647.792	1675.68
648.134	1687.38
648.476	1694.4
648.818	1603.12
649.16	1598.44
649.502	1607.8
649.844	1570.35
650.186	1603.12
650.527	1640.57
650.869	1596.1
651.211	1497.8
651.552	1525.88
651.894	1532.9
652.235	1486.09
652.576	1455.67
652.918	1518.86
653.259	1500.14
653.6	1479.07
653.942	1539.93
654.283	1432.26
654.624	1448.65
654.965	1415.88
655.306	1439.28
655.647	1413.54
655.988	1359.7
656.328	1366.73
656.669	1439.28
657.01	1399.49
657.351	1345.66
657.691	1383.11
658.032	1345.66
658.372	1376.09
658.713	1357.36
659.053	1291.83
659.394	1319.92
659.734	1380.77
660.074	1252.04
660.414	1270.76
660.755	1214.59
661.095	1317.58
661.435	1324.6
661.775	1263.74
662.115	1333.96
662.455	1315.23
662.794	1287.15
663.134	1259.06
663.474	1256.72
663.814	1212.25
664.153	1230.98
664.493	1202.89
664.833	1184.16
665.172	1125.65
665.511	1142.04
665.851	1081.18
666.19	1118.63
666.529	1146.72
666.869	1088.2
667.208	1017.99
667.547	1053.09
667.886	1099.91
668.225	1048.41
668.564	1041.39
668.903	1001.6
669.242	1043.73
669.581	1123.31
669.92	1078.84
670.258	1074.16
670.597	975.86
670.936	1034.37
671.274	1003.94
671.613	994.58
671.951	1006.28
672.29	957.13
672.628	996.92
672.966	961.81
673.304	947.77
673.643	940.75
673.981	1008.62
674.319	912.66
674.657	907.98
674.995	882.24
675.333	968.84
675.671	893.94
676.009	875.21
676.346	840.11
676.684	896.28
677.022	926.71
677.36	879.9
677.697	907.98
678.035	861.17
678.372	893.94
678.71	858.83
679.047	863.51
679.384	779.25
679.722	826.06
680.059	809.68
680.396	739.46
680.733	863.51
681.07	760.53
681.407	760.53
681.744	809.68
682.081	671.59
682.418	812.02
682.755	732.44
683.092	718.4
683.428	697.33
683.765	739.46
684.102	711.38
684.438	690.31
684.775	734.78
685.111	716.06
685.447	760.53
685.784	727.76
686.12	669.25
686.456	673.93
686.793	753.51
687.129	699.67
687.465	659.88
687.801	589.67
688.137	676.27
688.473	678.61
688.809	645.84
689.144	566.26
689.48	652.86
689.816	652.86
690.152	622.44
690.487	610.73
690.823	627.12
691.158	655.2
691.494	603.71
691.829	589.67
692.165	680.95
692.5	634.14
692.835	512.43
693.17	589.67
693.506	638.82
693.841	608.39
694.176	542.86
694.511	561.58
694.846	615.41
695.181	484.34
695.515	606.05
695.85	573.28
696.185	517.11
696.52	519.45
696.854	645.84
697.189	584.99
697.523	563.92
697.858	577.97
698.192	556.9
698.527	493.71
698.861	528.81
699.195	526.47
699.53	472.64
699.864	524.13
700.198	547.54
700.532	500.73
700.866	540.52
701.2	500.73
701.534	470.3
701.868	477.32
702.201	519.45
702.535	482
702.869	519.45
703.203	465.62
703.536	531.16
703.87	486.69
704.203	505.41
704.537	491.37
704.87	519.45
705.203	482
705.537	432.85
705.87	474.98
706.203	421.15
706.536	472.64
706.869	449.24
707.202	456.26
707.535	444.56
707.868	498.39
708.201	388.38
708.534	357.96
708.867	369.66
709.199	463.28
709.532	489.03
709.865	491.37
710.197	437.53
710.53	458.6
710.862	430.51
711.195	418.81
711.527	407.11
711.859	477.32
712.191	437.53
712.524	474.98
712.856	453.92
713.188	477.32
713.52	437.53
713.852	416.47
714.184	435.19
714.516	379.02
714.847	348.59
715.179	411.79
715.511	374.34
715.843	407.11
716.174	397.74
716.506	386.04
716.837	451.58
717.169	432.85
717.5	430.51
717.832	421.15
718.163	428.17
718.494	404.77
718.825	446.9
719.156	386.04
719.488	386.04
719.819	421.15
720.15	446.9
720.48	453.92
720.811	470.3
721.142	423.49
721.473	334.55
721.804	374.34
722.134	369.66
722.465	390.72
722.796	390.72
723.126	397.74
723.457	362.64
723.787	346.25
724.117	379.02
724.448	379.02
724.778	364.98
725.108	439.87
725.438	325.19
725.768	421.15
726.098	453.92
726.428	372
726.758	432.85
727.088	332.21
727.418	362.64
727.748	369.66
728.078	402.43
728.407	381.36
728.737	449.24
729.066	364.98
729.396	397.74
729.725	414.13
730.055	332.21
730.384	386.04
730.714	386.04
731.043	341.57
731.372	386.04
731.701	318.17
732.03	395.4
732.359	334.55
732.688	336.89
733.017	348.59
733.346	446.9
733.675	414.13
734.004	290.08
734.332	348.59
734.661	311.14
734.99	332.21
735.318	418.81
735.647	367.32
735.975	372
736.304	386.04
736.632	327.53
736.96	318.17
737.289	353.27
737.617	360.3
737.945	367.32
738.273	348.59
738.601	292.42
738.929	411.79
739.257	407.11
739.585	297.1
739.913	339.23
740.241	320.51
740.568	395.4
740.896	327.53
741.224	290.08
741.551	372
741.879	395.4
742.206	400.09
742.534	343.91
742.861	320.51
743.188	261.99
743.516	400.09
743.843	346.25
744.17	350.93
744.497	362.64
744.824	353.27
745.151	402.43
745.478	315.83
745.805	332.21
746.132	346.25
746.459	332.21
746.785	315.83
747.112	449.24
747.439	416.47
747.765	362.64
748.092	421.15
748.418	346.25
748.745	287.74
749.071	402.43
749.397	350.93
749.723	311.14
750.05	357.96
750.376	379.02
750.702	320.51
751.028	318.17
751.354	353.27
751.68	273.7
752.006	276.04
752.332	372
752.657	376.68
752.983	393.06
753.309	357.96
753.634	308.8
753.96	336.89
754.286	339.23
754.611	245.61
754.936	301.78
755.262	357.96
755.587	390.72
755.912	301.78
756.237	348.59
756.563	334.55
756.888	306.46
757.213	355.62
757.538	311.14
757.863	245.61
758.188	271.36
758.512	336.89
758.837	339.23
759.162	325.19
759.487	339.23
759.811	301.78
760.136	269.02
760.46	353.27
760.785	308.8
761.109	292.42
761.433	292.42
761.758	355.62
762.082	364.98
762.406	357.96
762.73	353.27
763.054	329.87
763.378	329.87
763.702	254.97
764.026	297.1
764.35	318.17
764.674	362.64
764.998	306.46
765.321	348.59
765.645	290.08
765.969	283.06
766.292	350.93
766.616	374.34
766.939	339.23
767.263	311.14
767.586	325.19
767.909	327.53
768.232	287.74
768.556	353.27
768.879	292.42
769.202	299.44
769.525	357.96
769.848	341.57
770.171	308.8
770.494	329.87
770.816	521.79
771.139	325.19
