Data from Subt16_11-19-43-218.txt Node
Date: Wed Feb 15 11:19:43 EST 2023
User: Wilson Lab
Spectrometer: FLMS03149
Trigger mode: 0
Integration Time (sec): 1.000000E0
Scans to average: 1
Electric dark correction enabled: true
Nonlinearity correction enabled: false
Boxcar width: 0
XAxis mode: Wavelengths
Number of Pixels in Spectrum: 2048
>>>>>Begin Spectral Data<<<<<
338.754	57.34
339.138	57.34
339.521	57.34
339.905	125.22
340.288	50.32
340.671	24.58
341.055	15.21
341.438	-129.9
341.821	40.96
342.204	73.73
342.587	-19.89
342.97	12.87
343.353	-26.92
343.736	66.71
344.119	-38.62
344.502	-17.55
344.885	-8.19
345.268	-106.49
345.65	108.83
346.033	-10.53
346.416	15.21
346.798	141.6
347.181	115.86
347.563	26.92
347.946	71.39
348.328	228.2
348.71	52.66
349.093	-19.89
349.475	97.13
349.857	-90.11
350.239	-29.26
350.621	-47.98
351.003	-10.53
351.385	66.71
351.767	69.05
352.149	-113.52
352.531	-12.87
352.913	-45.64
353.295	19.89
353.676	22.24
354.058	-78.41
354.44	-15.21
354.821	1.17
355.203	-12.87
355.584	-69.05
355.966	-29.26
356.347	-50.32
356.729	-45.64
357.11	83.09
357.491	-71.39
357.873	33.94
358.254	12.87
358.635	66.71
359.016	141.6
359.397	62.02
359.778	-57.34
360.159	43.3
360.54	66.71
360.921	71.39
361.301	97.13
361.682	69.05
362.063	26.92
362.444	-12.87
362.824	83.09
363.205	-47.98
363.585	38.62
363.966	-47.98
364.346	22.24
364.727	-64.36
365.107	-443.53
365.487	-17.55
365.867	-179.05
366.248	-50.32
366.628	10.53
367.008	12.87
367.388	-12.87
367.768	36.28
368.148	-10.53
368.528	15.21
368.908	118.2
369.288	-62.02
369.667	8.19
370.047	115.86
370.427	22.24
370.806	-43.3
371.186	-148.62
371.566	71.39
371.945	43.3
372.325	-31.6
372.704	76.07
373.083	38.62
373.463	-33.94
373.842	50.32
374.221	-85.43
374.6	-36.28
374.979	-64.36
375.358	15.21
375.737	-92.45
376.116	743.12
376.495	174.37
376.874	57.34
377.253	-33.94
377.632	127.56
378.011	-10.53
378.389	101.81
378.768	19.89
379.147	-26.92
379.525	-38.62
379.904	97.13
380.282	-29.26
380.661	-31.6
381.039	80.75
381.417	5.85
381.796	181.39
382.174	17.55
382.552	78.41
382.93	17.55
383.308	64.36
383.686	-71.39
384.064	10.53
384.442	111.18
384.82	-129.9
385.198	47.98
385.576	-40.96
385.954	160.33
386.331	31.6
386.709	-3.51
387.087	99.47
387.464	-127.56
387.842	90.11
388.219	-15.21
388.597	31.6
388.974	50.32
389.351	36.28
389.729	-141.6
390.106	-225.86
390.483	3.51
390.86	69.05
391.237	15.21
391.614	-26.92
391.991	90.11
392.368	92.45
392.745	-50.32
393.122	-71.39
393.499	-17.55
393.876	195.43
394.253	47.98
394.629	97.13
395.006	66.71
395.382	155.65
395.759	-45.64
396.135	141.6
396.512	-19.89
396.888	76.07
397.265	69.05
397.641	118.2
398.017	-40.96
398.393	108.83
398.77	71.39
399.146	141.6
399.522	31.6
399.898	-24.58
400.274	-33.94
400.65	3.51
401.026	118.2
401.401	12.87
401.777	17.55
402.153	92.45
402.529	-5.85
402.904	-24.58
403.28	40.96
403.655	-3.51
404.031	78.41
404.406	1.17
404.782	22.24
405.157	132.24
405.532	-38.62
405.908	12.87
406.283	-59.68
406.658	-1.17
407.033	-45.64
407.408	15.21
407.783	64.36
408.158	8.19
408.533	-47.98
408.908	66.71
409.283	-5.85
409.658	38.62
410.033	-3.51
410.407	8.19
410.782	33.94
411.157	71.39
411.531	-69.05
411.906	-10.53
412.28	-92.45
412.654	172.03
413.029	-10.53
413.403	22.24
413.777	73.73
414.152	66.71
414.526	-31.6
414.9	136.92
415.274	78.41
415.648	-64.36
416.022	90.11
416.396	26.92
416.77	-38.62
417.144	-29.26
417.518	-17.55
417.891	73.73
418.265	24.58
418.639	29.26
419.012	-115.86
419.386	-186.07
419.759	-52.66
420.133	-57.34
420.506	62.02
420.88	-19.89
421.253	90.11
421.626	50.32
421.999	76.07
422.373	-29.26
422.746	26.92
423.119	83.09
423.492	134.58
423.865	43.3
424.238	57.34
424.611	24.58
424.984	125.22
425.356	120.54
425.729	190.75
426.102	108.83
426.474	40.96
426.847	1.17
427.22	55
427.592	62.02
427.965	101.81
428.337	8.19
428.709	-22.24
429.082	47.98
429.454	73.73
429.826	-47.98
430.198	-62.02
430.571	120.54
430.943	43.3
431.315	-15.21
431.687	-115.86
432.059	8.19
432.431	8.19
432.802	36.28
433.174	31.6
433.546	92.45
433.918	-76.07
434.289	-15.21
434.661	-64.36
435.032	-15.21
435.404	-57.34
435.775	-10.53
436.147	55
436.518	-59.68
436.89	57.34
437.261	59.68
437.632	19.89
438.003	50.32
438.374	73.73
438.745	-17.55
439.116	31.6
439.487	94.79
439.858	22.24
440.229	69.05
440.6	66.71
440.971	87.77
441.342	10.53
441.712	-45.64
442.083	-40.96
442.454	47.98
442.824	3.51
443.195	33.94
443.565	-83.09
443.936	-52.66
444.306	-22.24
444.676	-66.71
445.047	64.36
445.417	-8.19
445.787	43.3
446.157	50.32
446.527	141.6
446.897	-485.66
447.267	104.15
447.637	26.92
448.007	22.24
448.377	-97.13
448.747	-73.73
449.116	71.39
449.486	64.36
449.856	85.43
450.225	50.32
450.595	94.79
450.964	50.32
451.334	94.79
451.703	29.26
452.073	24.58
452.442	57.34
452.811	31.6
453.18	38.62
453.55	136.92
453.919	73.73
454.288	52.66
454.657	104.15
455.026	43.3
455.395	78.41
455.764	-24.58
456.132	59.68
456.501	15.21
456.87	125.22
457.239	69.05
457.607	101.81
457.976	-45.64
458.344	50.32
458.713	3.51
459.081	-104.15
459.45	64.36
459.818	66.71
460.186	78.41
460.555	10.53
460.923	36.28
461.291	71.39
461.659	136.92
462.027	-3.51
462.395	90.11
462.763	-115.86
463.131	-47.98
463.499	101.81
463.867	40.96
464.235	22.24
464.602	-5.85
464.97	-26.92
465.338	-3.51
465.705	-85.43
466.073	50.32
466.44	19.89
466.808	-134.58
467.175	111.18
467.542	-87.77
467.91	-5.85
468.277	-106.49
468.644	12.87
469.011	36.28
469.378	-1.17
469.745	-59.68
470.112	69.05
470.479	122.88
470.846	-36.28
471.213	78.41
471.58	8.19
471.947	-24.58
472.313	-12.87
472.68	85.43
473.047	59.68
473.413	12.87
473.78	113.52
474.146	31.6
474.513	-1950.84
474.879	-43.3
475.245	29.26
475.612	-359.27
475.978	-38.62
476.344	3.51
476.71	64.36
477.076	-64.36
477.442	125.22
477.808	139.26
478.174	-134.58
478.54	-43.3
478.906	174.37
479.272	132.24
479.638	-136.92
480.003	-5.85
480.369	36.28
480.734	87.77
481.1	-50.32
481.466	-76.07
481.831	-8.19
482.196	1.17
482.562	-24.58
482.927	73.73
483.292	111.18
483.658	38.62
484.023	-101.81
484.388	36.28
484.753	-71.39
485.118	-24.58
485.483	179.05
485.848	10.53
486.213	52.66
486.578	-12.87
486.942	3.51
487.307	90.11
487.672	-111.18
488.036	-19.89
488.401	-10.53
488.765	113.52
489.13	106.49
489.494	71.39
489.859	40.96
490.223	15.21
490.587	-83.09
490.952	36.28
491.316	26.92
491.68	26.92
492.044	87.77
492.408	-22.24
492.772	-10.53
493.136	73.73
493.5	64.36
493.864	69.05
494.228	3.51
494.591	90.11
494.955	172.03
495.319	104.15
495.682	-31.6
496.046	52.66
496.409	-71.39
496.773	94.79
497.136	47.98
497.5	17.55
497.863	-118.2
498.226	87.77
498.589	52.66
498.953	10.53
499.316	64.36
499.679	-33.94
500.042	76.07
500.405	-76.07
500.768	33.94
501.131	38.62
501.494	-1.17
501.856	-36.28
502.219	71.39
502.582	-29.26
502.944	122.88
503.307	17.55
503.669	94.79
504.032	26.92
504.394	55
504.757	108.83
505.119	99.47
505.481	38.62
505.844	125.22
506.206	186.07
506.568	-24.58
506.93	-235.22
507.292	113.52
507.654	55
508.016	-17.55
508.378	94.79
508.74	87.77
509.102	19.89
509.463	-12.87
509.825	52.66
510.187	90.11
510.548	-26.92
510.91	179.05
511.272	125.22
511.633	64.36
511.994	26.92
512.356	90.11
512.717	5.85
513.078	120.54
513.44	50.32
513.801	31.6
514.162	120.54
514.523	186.07
514.884	29.26
515.245	22.24
515.606	38.62
515.967	186.07
516.328	104.15
516.688	29.26
517.049	57.34
517.41	5.85
517.77	-38.62
518.131	33.94
518.491	71.39
518.852	136.92
519.212	78.41
519.573	-76.07
519.933	-62.02
520.293	3.51
520.654	-29.26
521.014	118.2
521.374	50.32
521.734	12.87
522.094	62.02
522.454	136.92
522.814	83.09
523.174	33.94
523.534	97.13
523.894	115.86
524.253	157.99
524.613	225.86
524.973	111.18
525.332	-3.51
525.692	78.41
526.051	15.21
526.411	-8.19
526.77	-29.26
527.13	246.93
527.489	83.09
527.848	31.6
528.207	85.43
528.567	-340.55
528.926	97.13
529.285	197.78
529.644	-3.51
530.003	179.05
530.362	129.9
530.72	286.72
531.079	282.03
531.438	251.61
531.797	193.09
532.155	218.84
532.514	349.91
532.873	216.5
533.231	378
533.59	368.63
533.948	2882.37
534.306	14872.93
534.665	23860.59
535.023	31497.76
535.381	28721.88
535.739	22264.35
536.097	15348.06
536.456	11205.31
536.814	7144.49
537.172	4373.29
537.529	1817.43
537.887	921
538.245	691.63
538.603	394.38
538.961	356.93
539.318	1077.82
539.676	1602.1
540.034	3069.61
540.391	2365.11
540.749	1672.31
541.106	1012.28
541.463	1166.76
541.821	883.55
542.178	1000.58
542.535	569.92
542.892	272.67
543.25	275.01
543.607	99.47
543.964	146.28
544.321	249.27
544.678	497.36
545.035	462.26
545.391	761.84
545.748	593.33
546.105	420.13
546.462	422.47
546.818	392.04
547.175	373.32
547.531	347.57
547.888	181.39
548.244	193.09
548.601	71.39
548.957	176.71
549.313	197.78
549.67	218.84
550.026	298.42
550.382	45.64
550.738	139.26
551.094	324.16
551.45	204.8
551.806	165.01
552.162	228.2
552.518	324.16
552.874	303.1
553.229	424.81
553.585	363.95
553.941	328.85
554.296	466.94
554.652	497.36
555.007	356.93
555.363	441.19
555.718	445.87
556.074	387.36
556.429	473.96
556.784	534.81
557.139	548.86
557.495	583.96
557.85	605.03
558.205	574.6
558.56	651.84
558.915	752.48
559.27	572.26
559.624	752.48
559.979	729.08
560.334	846.1
560.689	878.87
561.043	890.57
561.398	977.17
561.753	991.22
562.107	1157.39
562.462	1042.71
562.816	1283.78
563.17	1258.04
563.525	1288.46
563.879	1529.54
564.233	1522.52
564.587	1550.6
564.941	1660.61
565.295	1557.63
565.649	1747.21
566.003	1669.97
566.357	1955.52
566.711	2138.08
567.065	2315.96
567.419	2227.02
567.773	2463.41
568.126	2493.84
568.48	2781.73
568.833	2751.3
569.187	3020.46
569.54	3151.53
569.894	3460.48
570.247	3629
570.6	3617.3
570.954	3865.39
571.307	3982.42
571.66	4239.88
572.013	4464.57
572.366	4832.04
572.719	4864.8
573.072	5185.46
573.425	5403.13
573.778	5754.21
574.131	5889.96
574.484	6224.65
574.836	6315.94
575.189	6727.87
575.542	7039.16
575.894	7533.01
576.247	7914.52
576.599	8045.59
576.952	8345.18
577.304	8862.44
577.656	9169.05
578.009	9681.63
578.361	9805.67
578.713	10329.95
579.065	10629.54
579.417	11001.69
579.769	11881.73
580.121	11874.71
580.473	12628.36
580.825	13080.08
581.177	13463.93
581.528	13969.49
581.88	14552.28
582.232	14992.3
582.584	15317.64
582.935	15668.72
583.287	16473.86
583.638	16759.41
583.989	17295.39
584.341	17906.27
584.692	18596.73
585.043	18657.58
585.395	19254.42
585.746	20066.58
586.097	20183.61
586.448	20658.74
586.799	21592.61
587.15	21971.78
587.501	22641.17
587.852	22783.94
588.203	23446.32
588.553	24258.48
588.904	23928.47
589.255	24574.45
589.605	25197.04
589.956	25445.13
590.306	25896.86
590.657	26755.83
591.007	26947.76
591.358	27301.18
591.708	27776.31
592.058	27956.53
592.408	28604.86
592.759	28602.52
593.109	29154.88
593.459	29290.63
593.809	29899.17
594.159	30165.99
594.509	29852.36
594.859	30039.61
595.208	30458.56
595.558	30898.58
595.908	30933.69
596.258	30514.73
596.607	31596.06
596.957	30811.98
597.306	31394.78
597.656	31589.04
598.005	31305.84
598.354	31387.75
598.704	30816.66
599.053	31158.38
599.402	31013.27
599.751	31446.27
600.1	31582.02
600.45	31039.01
600.799	31542.23
601.148	30964.12
601.496	31069.44
601.845	30503.03
602.194	31345.62
602.543	31252
602.892	29999.82
603.24	30580.27
603.589	30797.94
603.937	30245.57
604.286	29927.26
604.634	29463.83
604.983	29740.02
605.331	29189.99
605.679	28998.07
606.028	29339.79
606.376	29253.19
606.724	29087.01
607.072	28312.29
607.42	27949.51
607.768	27649.92
608.116	27865.25
608.464	27355.01
608.812	27025
609.16	26952.44
609.507	26758.17
609.855	26479.65
610.203	25751.74
610.55	25800.9
610.898	25711.96
611.245	25246.19
611.593	25047.24
611.94	25108.1
612.288	23804.42
612.635	23659.31
612.982	23539.94
613.329	23034.38
613.676	22683.3
614.024	22790.97
614.371	22180.09
614.718	22116.89
615.064	21756.45
615.411	21473.24
615.758	20932.58
616.105	20546.39
616.452	20356.81
616.798	20270.21
617.145	20001.05
617.492	19523.58
617.838	19355.06
618.185	18933.76
618.531	18683.33
618.877	18744.18
619.224	18365.01
619.57	18112.24
619.916	18070.11
620.263	17445.18
620.609	17105.81
620.955	17094.1
621.301	16476.2
621.647	16413.01
621.993	16082.99
622.339	16080.65
622.684	15547.01
623.03	15518.92
623.376	14933.79
623.722	14964.22
624.067	14744.2
624.413	14449.3
624.758	14219.92
625.104	14329.93
625.449	13723.73
625.795	13735.43
626.14	13428.82
626.485	12960.72
626.83	13274.35
627.175	12799.22
627.521	12462.18
627.866	12160.25
628.211	12139.19
628.556	11832.58
628.901	11755.34
629.245	11722.57
629.59	11371.49
629.935	11387.88
630.28	11128.08
630.624	11008.71
630.969	10865.94
631.314	10549.96
631.658	10409.53
632.002	10016.32
632.347	10112.28
632.691	9875.89
633.036	10004.62
633.38	9595.03
633.724	9918.02
634.068	9466.3
634.412	9276.71
634.756	9052.02
635.1	9037.98
635.444	8984.15
635.788	8787.54
636.132	8789.88
636.476	8635.41
636.82	8544.13
637.163	8265.6
637.507	8424.76
637.85	8366.24
638.194	8509.02
638.537	8157.94
638.881	7980.06
639.224	7916.86
639.568	7741.32
639.911	7989.42
640.254	7734.3
640.597	7511.95
640.94	7820.9
641.284	7401.94
641.627	7355.13
641.97	7125.76
642.312	7280.24
642.655	7160.87
642.998	6945.54
643.341	6950.22
643.684	7032.14
644.026	7081.29
644.369	6966.6
644.712	6830.85
645.054	6540.63
645.396	6545.31
645.739	6395.51
646.081	6329.98
646.424	6538.29
646.766	6383.81
647.108	6283.17
647.45	6203.59
647.792	6212.95
648.134	6180.18
648.476	6025.71
648.818	5960.17
649.16	6014.01
649.502	5761.23
649.844	5899.32
650.186	5625.48
650.527	5700.37
650.869	5700.37
651.211	5836.13
651.552	5899.32
651.894	5798.68
652.235	5660.59
652.576	5485.05
652.918	5468.66
653.259	5286.1
653.6	5576.33
653.942	5522.49
654.283	5382.06
654.624	5075.45
654.965	5077.79
655.306	5222.91
655.647	5253.33
655.988	5169.07
656.328	5056.73
656.669	5035.66
657.01	5030.98
657.351	4986.51
657.691	4766.5
658.032	4827.35
658.372	4876.51
658.713	4808.63
659.053	4525.43
659.394	4789.91
659.734	4558.19
660.074	4506.7
660.414	4427.12
660.755	4541.81
661.095	4548.83
661.435	4413.08
661.775	4380.31
662.115	4321.8
662.455	4349.89
662.794	4424.78
663.134	4111.15
663.474	4328.82
663.814	4150.94
664.153	4015.19
664.493	4019.87
664.833	4003.49
665.172	4001.15
665.511	3902.84
665.851	3954.34
666.19	3909.86
666.529	3865.39
666.869	3682.83
667.208	3860.71
667.547	3675.81
667.886	3589.21
668.225	3476.87
668.564	3591.55
668.903	3558.78
669.242	3439.42
669.581	3434.74
669.92	3416.01
670.258	3313.03
670.597	3170.26
670.936	3341.11
671.274	3280.26
671.613	3050.89
671.951	3160.89
672.29	3121.1
672.628	3137.49
672.966	1513.16
673.304	2905.78
673.643	2887.05
673.981	2856.62
674.319	2968.97
674.657	2952.59
674.995	2816.83
675.333	2842.58
675.671	2748.96
676.009	2669.38
676.346	2741.94
676.684	2557.04
677.022	2559.38
677.36	2624.91
677.697	2617.89
678.035	2470.44
678.372	2552.35
678.71	2435.33
679.047	2320.64
679.384	2423.62
679.722	2322.98
680.059	2456.39
680.396	2276.17
680.733	2224.68
681.07	2292.55
681.407	2149.78
681.744	2156.8
682.081	2140.42
682.418	2086.59
682.755	2074.88
683.092	2128.72
683.428	1960.2
683.765	1946.16
684.102	1887.64
684.438	2030.41
684.775	1808.06
685.111	1840.83
685.447	1808.06
685.784	1978.92
686.12	1709.76
686.456	1892.32
686.793	1730.83
687.129	1761.25
687.465	1775.3
687.801	1679.33
688.137	1616.14
688.473	1634.86
688.809	1672.31
689.144	1595.08
689.48	1627.84
689.816	1548.26
690.152	1595.08
690.487	1332.94
690.823	1414.85
691.158	1440.6
691.494	1529.54
691.829	1433.58
692.165	1417.19
692.5	1424.22
692.835	1398.47
693.17	1356.34
693.506	1330.59
693.841	1330.59
694.176	1330.59
694.511	1335.28
694.846	1194.84
695.181	1260.38
695.515	1110.58
695.85	1133.99
696.185	1117.61
696.52	1098.88
696.854	1098.88
697.189	1239.31
697.523	1077.82
697.858	946.75
698.192	1000.58
698.527	1054.41
698.861	1021.64
699.195	1087.18
699.53	1045.05
699.864	991.22
700.198	991.22
700.532	956.11
700.866	1012.28
701.2	906.96
701.534	939.73
701.868	867.17
702.201	951.43
702.535	904.62
702.869	834.4
703.203	885.89
703.536	906.96
703.87	729.08
704.203	836.74
704.537	899.94
704.87	761.84
705.203	738.44
705.537	670.56
705.87	848.44
706.203	796.95
706.536	710.35
706.869	703.33
707.202	822.7
707.535	747.8
707.868	567.58
708.201	729.08
708.534	693.97
708.867	766.53
709.199	689.29
709.532	719.71
709.865	761.84
710.197	614.39
710.53	619.07
710.862	691.63
711.195	560.56
711.527	588.64
711.859	560.56
712.191	717.37
712.524	478.64
712.856	614.39
713.188	598.01
713.52	555.88
713.852	612.05
714.184	539.49
714.516	583.96
714.847	520.77
715.179	502.04
715.511	609.71
715.843	495.02
716.174	532.47
716.506	560.56
716.837	560.56
717.169	558.22
717.5	459.92
717.832	509.07
718.163	520.77
718.494	326.5
718.825	518.43
719.156	473.96
719.488	321.82
719.819	378
720.15	387.36
720.48	424.81
720.811	541.83
721.142	616.73
721.473	471.62
721.804	642.48
722.134	378
722.465	469.28
722.796	443.53
723.126	466.94
723.457	448.21
723.787	223.52
724.117	455.23
724.448	340.55
724.778	420.13
725.108	413.1
725.438	385.02
725.768	466.94
726.098	356.93
726.428	469.28
726.758	385.02
727.088	319.48
727.418	312.46
727.748	422.47
728.078	417.79
728.407	333.53
728.737	347.57
729.066	289.06
729.396	319.48
729.725	354.59
730.055	218.84
730.384	300.76
730.714	378
731.043	267.99
731.372	429.49
731.701	310.12
732.03	328.85
732.359	342.89
732.688	387.36
733.017	352.25
733.346	300.76
733.675	310.12
734.004	415.45
734.332	319.48
734.661	335.87
734.99	375.66
735.318	370.97
735.647	317.14
735.975	122.88
736.304	228.2
736.632	249.27
736.96	279.69
737.289	239.9
737.617	319.48
737.945	333.53
738.273	167.35
738.601	256.29
738.929	223.52
739.257	183.73
739.585	340.55
739.913	335.87
740.241	324.16
740.568	258.63
740.896	176.71
741.224	349.91
741.551	282.03
741.879	275.01
742.206	204.8
742.534	90.11
742.861	211.82
743.188	310.12
743.516	214.16
743.843	214.16
744.17	167.35
744.497	195.43
744.824	230.54
745.151	228.2
745.478	153.31
745.805	115.86
746.132	218.84
746.459	190.75
746.785	230.54
747.112	141.6
747.439	291.4
747.765	172.03
748.092	216.5
748.418	172.03
748.745	118.2
749.071	90.11
749.397	249.27
749.723	221.18
750.05	237.56
750.376	69.05
750.702	312.46
751.028	289.06
751.354	190.75
751.68	235.22
752.006	195.43
752.332	127.56
752.657	183.73
752.983	143.94
753.309	221.18
753.634	216.5
753.96	134.58
754.286	200.12
754.611	242.25
754.936	265.65
755.262	76.07
755.587	45.64
755.912	83.09
756.237	-134.58
756.563	111.18
756.888	216.5
757.213	101.81
757.538	176.71
757.863	78.41
758.188	235.22
758.512	235.22
758.837	265.65
759.162	207.14
759.487	148.62
759.811	258.63
760.136	193.09
760.46	104.15
760.785	99.47
761.109	150.96
761.433	125.22
761.758	167.35
762.082	150.96
762.406	-15.21
762.73	146.28
763.054	113.52
763.378	136.92
763.702	136.92
764.026	87.77
764.35	78.41
764.674	179.05
764.998	186.07
765.321	181.39
765.645	186.07
765.969	80.75
766.292	122.88
766.616	139.26
766.939	120.54
767.263	155.65
767.586	162.67
767.909	1.17
768.232	99.47
768.556	223.52
768.879	181.39
769.202	47.98
769.525	99.47
769.848	167.35
770.171	160.33
770.494	129.9
770.816	-326.5
771.139	36.28
771.462	223.52
