Data from FLMS031491_10-52-51-924.txt Node
Date: Wed Feb 15 10:52:51 EST 2023
User: Wilson Lab
Spectrometer: FLMS03149
Trigger mode: 0
Integration Time (sec): 1.000000E-1
Scans to average: 1
Electric dark correction enabled: true
Nonlinearity correction enabled: false
Boxcar width: 0
XAxis mode: Wavelengths
Number of Pixels in Spectrum: 2048
>>>>>Begin Spectral Data<<<<<
338.754	-118.2
339.138	-118.2
339.521	-118.2
339.905	-148.62
340.288	-132.24
340.671	-160.33
341.055	-143.94
341.438	-120.54
341.821	-150.96
342.204	-69.05
342.587	-87.77
342.97	1.17
343.353	-19.89
343.736	43.3
344.119	5.85
344.502	62.02
344.885	101.81
345.268	122.88
345.65	160.33
346.033	136.92
346.416	118.2
346.798	108.83
347.181	129.9
347.563	190.75
347.946	277.35
348.328	263.31
348.71	253.95
349.093	291.4
349.475	251.61
349.857	333.53
350.239	209.48
350.621	312.46
351.003	289.06
351.385	277.35
351.767	282.03
352.149	321.82
352.531	289.06
352.913	338.21
353.295	319.48
353.676	251.61
354.058	298.42
354.44	347.57
354.821	270.33
355.203	279.69
355.584	207.14
355.966	277.35
356.347	256.29
356.729	258.63
357.11	263.31
357.491	223.52
357.873	258.63
358.254	298.42
358.635	282.03
359.016	251.61
359.397	291.4
359.778	221.18
360.159	244.59
360.54	242.25
360.921	263.31
361.301	321.82
361.682	291.4
362.063	275.01
362.444	249.27
362.824	303.1
363.205	228.2
363.585	312.46
363.966	256.29
364.346	310.12
364.727	242.25
365.107	298.42
365.487	335.87
365.867	298.42
366.248	246.93
366.628	277.35
367.008	230.54
367.388	272.67
367.768	305.44
368.148	289.06
368.528	324.16
368.908	249.27
369.288	251.61
369.667	272.67
370.047	249.27
370.427	244.59
370.806	221.18
371.186	291.4
371.566	275.01
371.945	249.27
372.325	237.56
372.704	319.48
373.083	298.42
373.463	279.69
373.842	249.27
374.221	246.93
374.6	289.06
374.979	225.86
375.358	263.31
375.737	328.85
376.116	218.84
376.495	235.22
376.874	232.88
377.253	331.19
377.632	312.46
378.011	326.5
378.389	331.19
378.768	239.9
379.147	354.59
379.525	251.61
379.904	282.03
380.282	275.01
380.661	300.76
381.039	282.03
381.417	235.22
381.796	307.78
382.174	298.42
382.552	298.42
382.93	265.65
383.308	345.23
383.686	282.03
384.064	239.9
384.442	282.03
384.82	321.82
385.198	249.27
385.576	293.74
385.954	282.03
386.331	228.2
386.709	265.65
387.087	277.35
387.464	303.1
387.842	326.5
388.219	335.87
388.597	279.69
388.974	324.16
389.351	275.01
389.729	225.86
390.106	324.16
390.483	277.35
390.86	239.9
391.237	270.33
391.614	321.82
391.991	324.16
392.368	286.72
392.745	277.35
393.122	216.5
393.499	246.93
393.876	253.95
394.253	338.21
394.629	267.99
395.006	293.74
395.382	307.78
395.759	218.84
396.135	242.25
396.512	207.14
396.888	307.78
397.265	282.03
397.641	232.88
398.017	286.72
398.393	256.29
398.77	296.08
399.146	232.88
399.522	310.12
399.898	333.53
400.274	331.19
400.65	347.57
401.026	239.9
401.401	298.42
401.777	305.44
402.153	298.42
402.529	275.01
402.904	333.53
403.28	328.85
403.655	342.89
404.031	342.89
404.406	279.69
404.782	277.35
405.157	382.68
405.532	258.63
405.908	342.89
406.283	291.4
406.658	347.57
407.033	253.95
407.408	347.57
407.783	328.85
408.158	349.91
408.533	251.61
408.908	406.08
409.283	321.82
409.658	251.61
410.033	363.95
410.407	328.85
410.782	326.5
411.157	340.55
411.531	324.16
411.906	333.53
412.28	218.84
412.654	286.72
413.029	331.19
413.403	216.5
413.777	282.03
414.152	284.38
414.526	286.72
414.9	307.78
415.274	270.33
415.648	303.1
416.022	237.56
416.396	272.67
416.77	296.08
417.144	310.12
417.518	312.46
417.891	256.29
418.265	326.5
418.639	310.12
419.012	293.74
419.386	326.5
419.759	317.14
420.133	253.95
420.506	340.55
420.88	265.65
421.253	333.53
421.626	310.12
421.999	307.78
422.373	246.93
422.746	335.87
423.119	305.44
423.492	363.95
423.865	286.72
424.238	345.23
424.611	314.8
424.984	296.08
425.356	291.4
425.729	356.93
426.102	277.35
426.474	258.63
426.847	291.4
427.22	303.1
427.592	293.74
427.965	324.16
428.337	235.22
428.709	298.42
429.082	363.95
429.454	289.06
429.826	347.57
430.198	298.42
430.571	333.53
430.943	258.63
431.315	282.03
431.687	260.97
432.059	310.12
432.431	282.03
432.802	356.93
433.174	349.91
433.546	352.25
433.918	251.61
434.289	312.46
434.661	335.87
435.032	340.55
435.404	324.16
435.775	277.35
436.147	345.23
436.518	291.4
436.89	279.69
437.261	366.29
437.632	389.7
438.003	324.16
438.374	396.72
438.745	244.59
439.116	345.23
439.487	361.61
439.858	319.48
440.229	307.78
440.6	284.38
440.971	361.61
441.342	338.21
441.712	317.14
442.083	305.44
442.454	340.55
442.824	272.67
443.195	317.14
443.565	361.61
443.936	310.12
444.306	298.42
444.676	307.78
445.047	253.95
445.417	286.72
445.787	279.69
446.157	338.21
446.527	356.93
446.897	382.68
447.267	300.76
447.637	230.54
448.007	331.19
448.377	312.46
448.747	361.61
449.116	326.5
449.486	286.72
449.856	289.06
450.225	265.65
450.595	338.21
450.964	352.25
451.334	338.21
451.703	324.16
452.073	303.1
452.442	265.65
452.811	310.12
453.18	256.29
453.55	366.29
453.919	303.1
454.288	321.82
454.657	307.78
455.026	359.27
455.395	275.01
455.764	354.59
456.132	382.68
456.501	300.76
456.87	340.55
457.239	326.5
457.607	324.16
457.976	310.12
458.344	270.33
458.713	307.78
459.081	272.67
459.45	319.48
459.818	289.06
460.186	305.44
460.555	319.48
460.923	326.5
461.291	359.27
461.659	347.57
462.027	310.12
462.395	275.01
462.763	305.44
463.131	293.74
463.499	265.65
463.867	368.63
464.235	279.69
464.602	385.02
464.97	317.14
465.338	312.46
465.705	382.68
466.073	310.12
466.44	303.1
466.808	347.57
467.175	387.36
467.542	324.16
467.91	321.82
468.277	326.5
468.644	321.82
469.011	275.01
469.378	305.44
469.745	387.36
470.112	267.99
470.479	218.84
470.846	289.06
471.213	300.76
471.58	303.1
471.947	277.35
472.313	270.33
472.68	272.67
473.047	326.5
473.413	289.06
473.78	361.61
474.146	342.89
474.513	480.98
474.879	324.16
475.245	328.85
475.612	361.61
475.978	282.03
476.344	307.78
476.71	352.25
477.076	275.01
477.442	356.93
477.808	312.46
478.174	314.8
478.54	296.08
478.906	363.95
479.272	363.95
479.638	284.38
480.003	366.29
480.369	296.08
480.734	338.21
481.1	319.48
481.466	312.46
481.831	373.32
482.196	356.93
482.562	326.5
482.927	312.46
483.292	317.14
483.658	352.25
484.023	289.06
484.388	305.44
484.753	349.91
485.118	347.57
485.483	352.25
485.848	296.08
486.213	314.8
486.578	326.5
486.942	326.5
487.307	366.29
487.672	352.25
488.036	305.44
488.401	385.02
488.765	366.29
489.13	246.93
489.494	258.63
489.859	370.97
490.223	303.1
490.587	270.33
490.952	317.14
491.316	324.16
491.68	291.4
492.044	298.42
492.408	385.02
492.772	342.89
493.136	324.16
493.5	378
493.864	399.06
494.228	363.95
494.591	328.85
494.955	356.93
495.319	317.14
495.682	328.85
496.046	328.85
496.409	321.82
496.773	354.59
497.136	333.53
497.5	307.78
497.863	317.14
498.226	331.19
498.589	282.03
498.953	291.4
499.316	361.61
499.679	370.97
500.042	331.19
500.405	382.68
500.768	345.23
501.131	310.12
501.494	300.76
501.856	359.27
502.219	310.12
502.582	263.31
502.944	326.5
503.307	359.27
503.669	368.63
504.032	237.56
504.394	401.4
504.757	370.97
505.119	326.5
505.481	307.78
505.844	321.82
506.206	380.34
506.568	352.25
506.93	389.7
507.292	333.53
507.654	335.87
508.016	394.38
508.378	375.66
508.74	291.4
509.102	347.57
509.463	333.53
509.825	317.14
510.187	331.19
510.548	349.91
510.91	335.87
511.272	338.21
511.633	366.29
511.994	317.14
512.356	242.25
512.717	352.25
513.078	401.4
513.44	406.08
513.801	333.53
514.162	300.76
514.523	347.57
514.884	361.61
515.245	378
515.606	328.85
515.967	345.23
516.328	392.04
516.688	314.8
517.049	396.72
517.41	373.32
517.77	352.25
518.131	328.85
518.491	342.89
518.852	387.36
519.212	300.76
519.573	282.03
519.933	293.74
520.293	361.61
520.654	354.59
521.014	434.17
521.374	260.97
521.734	387.36
522.094	324.16
522.454	366.29
522.814	368.63
523.174	328.85
523.534	378
523.894	375.66
524.253	298.42
524.613	335.87
524.973	401.4
525.332	331.19
525.692	396.72
526.051	385.02
526.411	422.47
526.77	352.25
527.13	359.27
527.489	429.49
527.848	303.1
528.207	438.85
528.567	427.15
528.926	368.63
529.285	366.29
529.644	420.13
530.003	370.97
530.362	445.87
530.72	471.62
531.079	569.92
531.438	581.62
531.797	525.45
532.155	455.23
532.514	466.94
532.873	473.96
533.231	560.56
533.59	654.18
533.948	1784.66
534.306	12462.18
534.665	25274.27
535.023	23069.49
535.381	17279
535.739	11755.34
536.097	10662.31
536.456	8511.36
536.814	6407.22
537.172	4087.75
537.529	1817.43
537.887	970.15
538.245	757.16
538.603	551.2
538.961	516.09
539.318	1131.65
539.676	2154.46
540.034	2585.12
540.391	2243.4
540.749	1833.81
541.106	1274.42
541.463	1173.78
541.821	874.19
542.178	661.2
542.535	572.26
542.892	448.21
543.25	466.94
543.607	368.63
543.964	445.87
544.321	448.21
544.678	679.93
545.035	768.87
545.391	855.47
545.748	764.18
546.105	768.87
546.462	661.2
546.818	663.54
547.175	658.86
547.531	520.77
547.888	452.89
548.244	469.28
548.601	605.03
548.957	509.07
549.313	520.77
549.67	504.39
550.026	476.3
550.382	497.36
550.738	569.92
551.094	525.45
551.45	562.9
551.806	675.24
552.162	658.86
552.518	567.58
552.874	710.35
553.229	700.99
553.585	658.86
553.941	668.22
554.296	792.27
554.652	750.14
555.007	740.78
555.363	799.29
555.718	869.51
556.074	899.94
556.429	967.81
556.784	939.73
557.139	935.04
557.495	1190.16
557.85	1009.94
558.205	1215.91
558.56	1201.87
558.915	1363.36
559.27	1201.87
559.624	1269.74
559.979	1414.85
560.334	1346.98
560.689	1438.26
561.043	1515.5
561.398	1513.16
561.753	1637.2
562.107	1864.24
562.462	1854.87
562.816	1929.77
563.17	2046.8
563.525	2121.7
563.879	2287.87
564.233	2325.32
564.587	2451.71
564.941	2580.44
565.295	2753.64
565.649	2826.2
566.003	2933.86
566.357	3071.95
566.711	3174.94
567.065	3172.6
567.419	3404.31
567.773	3706.24
568.126	3884.12
568.48	4001.15
568.833	4172
569.187	4457.55
569.54	4663.52
569.894	4902.25
570.247	5148.01
570.6	5389.08
570.954	5559.94
571.307	5887.62
571.66	6133.37
572.013	6353.38
572.366	6732.55
572.719	7139.8
573.072	7425.35
573.425	7493.23
573.778	7879.41
574.131	8391.99
574.484	8862.44
574.836	9201.82
575.189	9679.29
575.542	10060.79
575.894	10423.58
576.247	10931.47
576.599	11376.17
576.952	11708.53
577.304	12321.75
577.656	12941.99
578.009	13384.35
578.361	13957.78
578.713	14334.61
579.065	14879.96
579.417	15633.61
579.769	16441.09
580.121	16951.33
580.473	17749.45
580.825	18095.85
581.177	18884.61
581.528	19411.23
581.88	19708.48
582.232	20761.72
582.584	21543.46
582.935	21868.8
583.287	22556.91
583.638	23273.12
583.989	23752.93
584.341	25164.27
584.692	25695.57
585.043	26175.38
585.395	26964.14
585.746	27472.04
586.097	28176.54
586.448	28686.78
586.799	29412.34
587.15	30243.23
587.501	30748.79
587.852	30882.2
588.203	32237.37
588.553	33101.03
588.904	33140.82
589.255	33908.51
589.605	34608.33
589.956	35041.33
590.306	35876.9
590.657	36256.07
591.007	36368.41
591.358	37117.39
591.708	37838.27
592.058	38177.65
592.408	38882.15
592.759	38961.73
593.109	39785.6
593.459	40094.55
593.809	40426.9
594.159	41037.78
594.509	40703.09
594.859	40366.05
595.208	41054.17
595.558	41430.99
595.908	41852.29
596.258	41601.85
596.607	41821.86
596.957	41641.64
597.306	42067.62
597.656	42226.78
598.005	41882.72
598.354	42076.98
598.704	41878.04
599.053	42100.39
599.402	42142.52
599.751	42449.13
600.1	42746.37
600.45	42769.78
600.799	42477.21
601.148	41744.62
601.496	41800.8
601.845	41601.85
602.194	42451.47
602.543	42072.3
602.892	41409.93
603.24	40927.78
603.589	41218
603.937	40462.01
604.286	40520.52
604.634	40040.71
604.983	40469.03
605.331	39668.57
605.679	39827.73
606.028	39333.87
606.376	39434.52
606.724	39350.26
607.072	37985.72
607.42	37798.48
607.768	37002.7
608.116	36759.28
608.464	36291.18
608.812	37049.51
609.16	36361.39
609.507	36277.13
609.855	35659.23
610.203	35476.67
610.55	34507.69
610.898	34233.85
611.245	34041.92
611.593	33466.15
611.94	33346.78
612.288	32899.74
612.635	32197.58
612.982	32012.68
613.329	31303.49
613.676	31060.08
614.024	30945.39
614.371	30093.44
614.718	30327.49
615.064	29482.56
615.411	29098.71
615.758	28988.71
616.105	28558.05
616.452	27912.06
616.798	27654.6
617.145	27317.56
617.492	27092.87
617.838	26512.42
618.185	26058.35
618.531	25625.36
618.877	25260.23
619.224	24567.43
619.57	24520.62
619.916	23614.84
620.263	23497.81
620.609	23226.31
620.955	22917.36
621.301	22655.22
621.647	22379.03
621.993	22081.78
622.339	21463.88
622.684	21506.01
623.03	21065.99
623.376	20618.95
623.722	20457.45
624.067	19858.28
624.413	19453.36
624.758	19472.09
625.104	19144.41
625.449	18821.42
625.795	18470.34
626.14	18018.61
626.485	17915.63
626.83	17592.64
627.175	17660.51
627.521	17405.39
627.866	16782.81
628.211	16707.91
628.556	16579.18
628.901	16340.45
629.245	15783.4
629.59	15944.9
629.935	15635.95
630.28	15458.07
630.624	14856.55
630.969	14872.93
631.314	14608.45
631.658	14468.02
632.002	14463.34
632.347	13908.63
632.691	13599.68
633.036	13508.4
633.38	13250.94
633.724	13248.6
634.068	13047.32
634.412	12766.45
634.756	12513.67
635.1	12712.62
635.444	12525.38
635.788	11858.32
636.132	12054.93
636.476	11942.58
636.82	11937.9
637.163	11408.94
637.507	11479.16
637.85	11736.62
638.194	11362.13
638.537	11308.3
638.881	11151.48
639.224	10784.02
639.568	10636.56
639.911	10697.42
640.254	10828.49
640.597	10517.2
640.94	10313.57
641.284	10175.48
641.627	9999.94
641.97	9929.72
642.312	10147.39
642.655	9737.8
642.998	9597.37
643.341	9786.95
643.684	9803.33
644.026	9709.71
644.369	9473.32
644.712	9253.31
645.054	9117.56
645.396	9332.89
645.739	9187.77
646.081	9021.59
646.424	8949.04
646.766	8970.1
647.108	8993.51
647.45	8967.76
647.792	8754.77
648.134	8661.15
648.476	8532.42
648.818	8558.17
649.16	8193.05
649.502	8186.02
649.844	8195.39
650.186	8101.76
650.527	8265.6
650.869	7956.65
651.211	8008.14
651.552	8157.94
651.894	7937.93
652.235	7743.66
652.576	7898.14
652.918	7437.05
653.259	7465.14
653.6	7603.23
653.942	7511.95
654.283	7266.19
654.624	7446.41
654.965	7324.71
655.306	7184.27
655.647	7151.51
655.988	7132.78
656.328	6809.79
656.669	7109.38
657.01	7156.19
657.351	7041.5
657.691	6732.55
658.032	6692.76
658.372	6505.52
658.713	6519.56
659.053	6580.42
659.394	6519.56
659.734	6432.96
660.074	6372.11
660.414	6224.65
660.755	6105.29
661.095	6234.02
661.435	6201.25
661.775	6039.75
662.115	6095.93
662.455	6163.8
662.794	5889.96
663.134	5906.34
663.474	5775.27
663.814	5705.06
664.153	5765.91
664.493	5634.84
664.833	5730.8
665.172	5534.2
665.511	5438.23
665.851	5417.17
666.19	5262.69
666.529	5218.22
666.869	5073.11
667.208	5337.59
667.547	5056.73
667.886	5119.92
668.225	5077.79
668.564	4981.83
668.903	4923.32
669.242	4768.84
669.581	4846.08
669.92	4768.84
670.258	4740.76
670.597	4518.4
670.936	4670.54
671.274	4495
671.613	4319.46
671.951	4647.13
672.29	4420.1
672.628	4265.63
672.966	4366.27
673.304	4258.6
673.643	4188.39
673.981	4164.98
674.319	4111.15
674.657	4010.51
674.995	3998.81
675.333	3963.7
675.671	3839.65
676.009	3795.18
676.346	3926.25
676.684	3701.56
677.022	3678.15
677.36	3687.51
677.697	3673.47
678.035	3636.02
678.372	3500.27
678.71	3614.96
679.047	3451.12
679.384	3472.18
679.722	3336.43
680.059	3413.67
680.396	3420.69
680.733	3263.88
681.07	3273.24
681.407	3125.79
681.744	3067.27
682.081	3111.74
682.418	3170.26
682.755	2987.69
683.092	2987.69
683.428	3025.14
683.765	2905.78
684.102	2931.52
684.438	2798.11
684.775	2779.39
685.111	2662.36
685.447	2779.39
685.784	2718.53
686.12	2660.02
686.456	2664.7
686.793	2568.74
687.129	2650.66
687.465	2559.38
687.801	2573.42
688.137	2327.66
688.473	2390.86
688.809	2320.64
689.144	2390.86
689.48	2421.28
689.816	2379.15
690.152	2198.93
690.487	2210.64
690.823	2245.74
691.158	2191.91
691.494	2119.36
691.829	2084.25
692.165	2067.86
692.5	2220
692.835	2053.82
693.17	2067.86
693.506	2107.65
693.841	1892.32
694.176	1838.49
694.511	1838.49
694.846	1906.37
695.181	1815.09
695.515	1927.43
695.85	1829.13
696.185	1810.4
696.52	1691.04
696.854	1831.47
697.189	1765.93
697.523	1787
697.858	1712.1
698.192	1662.95
698.527	1606.78
698.861	1658.27
699.195	1583.37
699.53	1597.42
699.864	1639.55
700.198	1662.95
700.532	1538.9
700.866	1492.09
701.2	1499.11
701.534	1468.69
701.868	1517.84
702.201	1421.88
702.535	1356.34
702.869	1440.6
703.203	1354
703.536	1356.34
703.87	1283.78
704.203	1363.36
704.537	1363.36
704.87	1255.7
705.203	1227.61
705.537	1417.19
705.87	1265.06
706.203	1288.46
706.536	1225.27
706.869	1220.59
707.202	1220.59
707.535	1234.63
707.868	1204.21
708.201	1190.16
708.534	1262.72
708.867	1084.84
709.199	1199.52
709.532	1194.84
709.865	1201.87
710.197	1176.12
710.53	1040.37
710.862	1183.14
711.195	1176.12
711.527	1136.33
711.859	1124.63
712.191	1108.24
712.524	1056.75
712.856	1054.41
713.188	1042.71
713.52	1066.11
713.852	1047.39
714.184	1002.92
714.516	1016.96
714.847	1089.52
715.179	979.51
715.511	1068.45
715.843	967.81
716.174	984.2
716.506	949.09
716.837	974.83
717.169	963.13
717.5	906.96
717.832	972.49
718.163	864.83
718.494	949.09
718.825	937.38
719.156	928.02
719.488	979.51
719.819	944.41
720.15	906.96
720.48	958.45
720.811	827.38
721.142	853.13
721.473	862.49
721.804	862.49
722.134	878.87
722.465	832.06
722.796	953.77
723.126	864.83
723.457	981.85
723.787	853.13
724.117	909.3
724.448	839.08
724.778	794.61
725.108	811
725.438	869.51
725.768	860.15
726.098	829.72
726.428	731.42
726.758	811
727.088	754.82
727.418	811
727.748	745.46
728.078	757.16
728.407	661.2
728.737	740.78
729.066	750.14
729.396	782.91
729.725	754.82
730.055	792.27
730.384	719.71
730.714	668.22
731.043	698.65
731.372	722.06
731.701	722.06
732.03	679.93
732.359	663.54
732.688	684.61
733.017	733.76
733.346	658.86
733.675	679.93
734.004	600.35
734.332	677.59
734.661	729.08
734.99	799.29
735.318	722.06
735.647	715.03
735.975	747.8
736.304	670.56
736.632	668.22
736.96	654.18
737.289	598.01
737.617	600.35
737.945	689.29
738.273	649.5
738.601	595.67
738.929	722.06
739.257	537.15
739.585	614.39
739.913	640.14
740.241	661.2
740.568	644.82
740.896	616.73
741.224	590.99
741.551	677.59
741.879	656.52
742.206	684.61
742.534	600.35
742.861	532.47
743.188	513.75
743.516	635.46
743.843	621.41
744.17	574.6
744.497	600.35
744.824	572.26
745.151	572.26
745.478	588.64
745.805	532.47
746.132	532.47
746.459	546.52
746.785	518.43
747.112	581.62
747.439	558.22
747.765	581.62
748.092	579.28
748.418	541.83
748.745	485.66
749.071	502.04
749.397	574.6
749.723	525.45
750.05	567.58
750.376	558.22
750.702	595.67
751.028	598.01
751.354	569.92
751.68	539.49
752.006	525.45
752.332	441.19
752.657	530.13
752.983	520.77
753.309	511.41
753.634	532.47
753.96	457.57
754.286	473.96
754.611	492.68
754.936	553.54
755.262	530.13
755.587	431.83
755.912	445.87
756.237	544.17
756.563	523.11
756.888	473.96
757.213	396.72
757.538	455.23
757.863	466.94
758.188	478.64
758.512	459.92
758.837	452.89
759.162	436.51
759.487	483.32
759.811	509.07
760.136	466.94
760.46	457.57
760.785	506.73
761.109	441.19
761.433	518.43
761.758	394.38
762.082	455.23
762.406	518.43
762.73	448.21
763.054	392.04
763.378	410.76
763.702	417.79
764.026	471.62
